--
-- PostgreSQL database dump
--

-- Dumped from database version 10.12 (Ubuntu 10.12-0ubuntu0.18.04.1)
-- Dumped by pg_dump version 10.12

-- Started on 2020-03-26 14:48:55

SET statement_timeout = 0;
SET lock_timeout = 0;
SET idle_in_transaction_session_timeout = 0;
SET client_encoding = 'UTF8';
SET standard_conforming_strings = on;
SELECT pg_catalog.set_config('search_path', '', false);
SET check_function_bodies = false;
SET xmloption = content;
SET client_min_messages = warning;
SET row_security = off;

SET default_tablespace = '';

SET default_with_oids = false;

--
-- TOC entry 201 (class 1259 OID 70278)
-- Name: totalcom; Type: TABLE; Schema: public; Owner: python
--

CREATE TABLE public.totalcom (
    t real NOT NULL,
    x real NOT NULL,
    y real NOT NULL,
    z real NOT NULL,
    vx real NOT NULL,
    vy real NOT NULL,
    vz real NOT NULL,
    snap smallint NOT NULL
);


ALTER TABLE public.totalcom OWNER TO python;

--
-- TOC entry 2927 (class 0 OID 70278)
-- Dependencies: 201
-- Data for Name: totalcom; Type: TABLE DATA; Schema: public; Owner: python
--

COPY public.totalcom (t, x, y, z, vx, vy, vz, snap) FROM stdin;
0	-203.121994	314.769012	-155.695999	36.6240005	-28.5699997	29.8180008	0
0.0140000004	-201.953003	314.011993	-155.104996	36.7739983	-28.5610008	29.9099998	1
0.0289999992	-200.192993	314.380005	-153.453995	36.5660019	-28.5750008	29.9230003	2
0.0430000015	-200.740005	314.190002	-153.727005	36.7280006	-28.5809994	30.0900002	3
0.057	-199.498993	312.360992	-152.442001	36.8300018	-28.5189991	29.9029999	4
0.0710000023	-198.839005	312.691986	-153.662994	36.6399994	-28.3290005	29.9659996	5
0.0860000029	-198.457001	312.522003	-152.190994	36.9830017	-28.3290005	29.9680004	6
0.100000001	-197.404007	312.341003	-152.110992	36.7179985	-28.4640007	29.8560009	7
0.114	-198.154007	309.911011	-151.483994	36.7490005	-28.7220001	29.9880009	8
0.128999993	-197.556	310.743011	-152.063004	36.7840004	-28.5139999	29.9239998	9
0.143000007	-195.625	309.364014	-150.647995	36.6699982	-28.5779991	29.9729996	10
0.157000005	-195.815994	309.489014	-150.460007	36.7120018	-28.4349995	29.9920006	11
0.171000004	-194.098999	309.230011	-148.470993	36.9039993	-28.4260006	29.9829998	12
0.186000004	-195.233994	308.950989	-148.565994	36.8089981	-28.5020008	29.9500008	13
0.200000003	-196.022995	308.751007	-151.013	36.9389992	-28.3939991	29.8910007	14
0.214000002	-194.737	307.938995	-148.621994	36.7360001	-28.6830006	29.9090004	15
0.229000002	-193.834	308.743988	-148.796997	36.5649986	-28.5459995	30.1749992	16
0.243000001	-193.768005	306.868988	-147.322006	36.5690002	-28.4909992	30.0990009	17
0.256999999	-192.270996	306.497986	-145.438995	36.7949982	-28.1889992	30.1280003	18
0.270999998	-191.201996	307.578003	-146.020996	36.6559982	-28.3409996	30.0580006	19
0.286000013	-191.923004	308.303009	-145.518997	36.6930008	-28.3479996	29.9720001	20
0.300000012	-190.632004	307.638	-146.337006	36.5419998	-28.5249996	30.0820007	21
0.31400001	-188.610001	305.123993	-145.990997	36.6090012	-28.4060001	30.2630005	22
0.328999996	-189.432007	305.578003	-144.970993	36.8470001	-28.4799995	30.0030003	23
0.342999995	-188.813995	304.039001	-145.102997	36.5870018	-28.4169998	30.1429996	24
0.356999993	-188.447006	305.82901	-144.796997	36.5900002	-28.4489994	30.1030006	25
0.370999992	-188.356995	303.156006	-142.770996	36.6119995	-28.7649994	30.1009998	26
0.386000007	-187.863007	303.506012	-143.973007	36.5200005	-28.3409996	30.052	27
0.400000006	-188.268997	303.817993	-142.251007	36.6020012	-28.8700008	30.1189995	28
0.414000005	-186.740997	303.537994	-143.222	36.2330017	-28.6340008	29.8649998	29
0.42899999	-188.080994	302.75	-141.542999	36.4609985	-28.5699997	29.8859997	30
0.442999989	-184.429993	301.687012	-140.470993	36.7579994	-28.677	30.0020008	31
0.456999987	-184.723007	300.610992	-141.647003	36.5449982	-28.4549999	30.1930008	32
0.470999986	-183.078003	301.002991	-141.613007	36.4020004	-28.5470009	30.0769997	33
0.486000001	-185.026993	301.43399	-141.261993	36.5750008	-28.5760002	30.1439991	34
0.5	-183.237	298.934998	-139.815002	36.3330002	-28.6630001	30.1630001	35
0.513999999	-183.399002	300.166992	-138.014999	36.5299988	-28.4769993	30.1940002	36
0.528999984	-182.242004	299.539001	-140.009995	36.5449982	-28.5400009	30.1450005	37
0.542999983	-182.460999	297.365997	-136.779007	36.3720016	-28.4869995	30.2080002	38
0.556999981	-181.410004	299.170013	-138.824997	36.3619995	-28.4599991	30.3339996	39
0.57099998	-181.291	299.256989	-138.018005	36.5880013	-28.6100006	30.2180004	40
0.586000025	-179.492996	297.419006	-136.292007	36.3740005	-28.3700008	30.4290009	41
0.600000024	-179.375	298.516998	-138.179993	36.7060013	-28.7660007	30.302	42
0.614000022	-178.371994	296.365997	-136.453003	36.5960007	-28.7350006	30.0319996	43
0.629000008	-178.714996	297.639008	-135.996002	36.5320015	-28.6009998	30.2649994	44
0.643000007	-178.690994	296.235992	-136.582001	36.4420013	-28.6299992	30.4290009	45
0.657000005	-178.565002	295.848999	-135.386993	36.4510002	-28.3810005	30.4829998	46
0.671000004	-175.307999	295.752991	-132.945999	36.3330002	-28.5179996	30.4610004	47
0.68599999	-177.313004	296.752014	-131.542007	36.4840012	-28.4969997	30.4740009	48
0.699999988	-176.143997	294.865997	-132.723999	36.1720009	-28.3209991	30.5340004	49
0.713999987	-174.479996	295.196991	-133.192993	36.5470009	-28.5489998	30.6100006	50
0.728999972	-174.039993	291.825012	-132.755997	36.4230003	-28.5849991	30.4169998	51
0.742999971	-174.175003	292.761993	-132.710999	36.4350014	-28.7950001	30.3959999	52
0.757000029	-173.660995	291.506989	-131.164993	36.5649986	-28.5489998	30.4810009	53
0.771000028	-173.848007	292.036011	-132.832993	36.6689987	-28.7210007	30.1679993	54
0.786000013	-173.996002	291.214996	-132.143005	36.4080009	-28.4489994	30.5249996	55
0.800000012	-171.990005	292.091003	-129.220001	36.4679985	-28.8789997	30.1870003	56
0.81400001	-173.074005	289.209015	-130.014999	36.5239983	-28.6170006	30.4710007	57
0.828999996	-170.548996	291.67099	-130.492996	36.5859985	-28.7560005	30.1590004	58
0.842999995	-172.085007	289.746002	-129.498001	36.4179993	-28.6140003	30.1380005	59
0.856999993	-169.485992	290.195007	-129.268997	36.473999	-28.6529999	30.4720001	60
0.870999992	-169.5	289.169006	-128.317001	36.5419998	-28.5300007	30.4740009	61
0.885999978	-170.106995	289.089996	-130.039993	36.5019989	-28.6860008	30.3759995	62
0.899999976	-168.362	290.32901	-129.533997	36.5489998	-28.7290001	30.427	63
0.913999975	-166.781006	288.743011	-128.194	36.473999	-28.6830006	30.5480003	64
0.92900002	-166.098999	288.847992	-125.751999	36.5509987	-28.7140007	30.3110008	65
0.943000019	-168.809006	287.071991	-127.341003	36.3689995	-28.7870007	30.3980007	66
0.957000017	-167.619995	288.179993	-126.027	36.3100014	-28.8390007	30.3050003	67
0.971000016	-165.123001	285.928009	-124.625	36.7290001	-28.7649994	30.3250008	68
0.986000001	-164.873001	286.946991	-126.352997	36.4620018	-28.7380009	30.4640007	69
1	-164.565002	285.002991	-125.356003	36.3400002	-28.8409996	30.0620003	70
1.01400006	-163.716003	286.003998	-123.510002	36.507	-28.9869995	30.3069992	71
1.02900004	-163.576004	285.47699	-122.785004	36.5810013	-28.7779999	30.3470001	72
1.04299998	-162.882004	283.924988	-123.318001	36.2719994	-28.8390007	30.2040005	73
1.05700004	-162.699005	283.911987	-122.414001	36.3269997	-28.8519993	30.1879997	74
1.07099998	-162.179993	284.360992	-122.704002	36.4239998	-28.9790001	30.1429996	75
1.08599997	-161.134995	282.725006	-121.236	36.3800011	-28.8649998	30.1690006	76
1.10000002	-159.761993	283.778992	-121.823997	36.4970016	-28.7290001	30.4330006	77
1.11399996	-160.395996	282.971985	-122.265999	36.2989998	-28.9669991	30.3479996	78
1.12899995	-159.339005	283.997009	-120.066002	36.3079987	-28.9200001	30.1870003	79
1.14300001	-159.604004	281.412994	-119.988998	36.3289986	-29.1060009	30.1940002	80
1.15699995	-159.182007	281.641998	-118.976997	36.6170006	-28.6329994	30.4020004	81
1.171	-157.264999	282.019989	-118.983002	36.2089996	-28.8999996	30.0249996	82
1.18599999	-158.768005	281.571014	-120.582001	36.3549995	-29.0060005	30.0879993	83
1.20000005	-157.322006	279.524994	-117.718002	36.4840012	-28.9090004	30.2549992	84
1.21399999	-158.772995	279.950012	-116.864998	36.2249985	-29.0429993	30.1860008	85
1.22899997	-157.330994	277.431	-117.040001	36.2599983	-29.0620003	30.0300007	86
1.24300003	-157.210007	278.636993	-116.978996	36.3320007	-29.0319996	30.3549995	87
1.25699997	-155.417999	278.165009	-116.754997	36.3059998	-28.6970005	30.2759991	88
1.27100003	-154.662003	280.075989	-116.511002	36.3470001	-28.9060001	30.198	89
1.28600001	-153.822006	278.796997	-116.617996	36.2319984	-29.0020008	30.316	90
1.29999995	-153.440002	277.373993	-114.263	36.1409988	-28.9139996	30.2980003	91
1.31400001	-154.347	276.09201	-113.903999	36.3110008	-28.9209995	30.2380009	92
1.329	-153.039993	276.460999	-114.403	36.5130005	-29.198	30.3630009	93
1.34300005	-153.203003	276.533997	-114.082001	36.4290009	-28.8549995	30.4489994	94
1.35699999	-151.619003	275.575989	-115.005997	36.5760002	-29.0130005	30.1620007	95
1.37100005	-150.897995	275.174011	-112.446999	36.3479996	-28.8570004	30.0119991	96
1.38600004	-150.653	275.191986	-112.565002	36.2410011	-29.2119999	30.1219997	97
1.39999998	-151.304001	275.429993	-112.699997	36.2330017	-29.0179996	30.0359993	98
1.41400003	-148.335007	272.854004	-111.945999	36.3330002	-29.1709995	30.1609993	99
1.42900002	-149.358002	273.15799	-110.531998	36.1669998	-28.7800007	30.1630001	100
1.44299996	-149.477997	273.687012	-110.455002	36.3670006	-28.9979992	30.1870003	101
1.45700002	-147.151001	273.541992	-111.292999	36.5060005	-28.8490009	30.1989994	102
1.47099996	-147	273.070007	-109.611	36.2700005	-28.9899998	30.2040005	103
1.48599994	-148.347	272.32901	-108.584999	36.5330009	-29.2259998	30.0909996	104
1.5	-147.268005	271.567993	-109.301003	36.5089989	-28.9610004	29.9230003	105
1.51400006	-146.955002	271.240997	-109.117996	36.3810005	-28.9090004	29.9319992	106
1.52900004	-145.891998	269.186005	-108.581001	36.5239983	-28.9169998	30.0720005	107
1.54299998	-144.192001	271.536011	-107.957001	35.9920006	-29.2029991	30.0389996	108
1.55700004	-144.279999	270.251007	-109.007004	36.3310013	-28.9389992	30.1219997	109
1.57099998	-143.988998	269.490997	-107.531998	36.6080017	-29.0930004	30.0340004	110
1.58599997	-145.841003	267.951996	-106.959999	36.3670006	-29.1200008	29.8869991	111
1.60000002	-142.660004	267.386993	-106.966003	36.0470009	-28.9619999	30.1310005	112
1.61399996	-142.942993	267.015991	-106.577003	36.4650002	-29.0289993	30.0289993	113
1.62899995	-142.860992	267.911987	-106.25	36.4720001	-28.9179993	29.9950008	114
1.64300001	-140.897003	267.420013	-105.776001	36.2589989	-28.9799995	29.698	115
1.65699995	-141.149994	267.019012	-105.088997	36.4350014	-28.802	29.9570007	116
1.671	-140.070007	264.971008	-104.328003	36.3969994	-29.1560001	29.8490009	117
1.68599999	-139.779999	266.61499	-105.086998	36.2420006	-28.9510002	29.8309994	118
1.70000005	-139.272995	265.984985	-104.077003	36.5890007	-29.1200008	29.8549995	119
1.71399999	-140.020004	264.410004	-103.031998	36.5200005	-29.1259995	30.0310001	120
1.72899997	-139.548004	265.407013	-101.111	36.5979996	-29.2220001	29.8309994	121
1.74300003	-136.815994	264.859009	-100.963997	36.5600014	-29.1240005	29.8899994	122
1.75699997	-137.419006	263.847992	-101.785004	36.6189995	-29.0359993	29.6310005	123
1.77100003	-136.565002	261.684998	-99.8949966	36.6479988	-29.118	29.9489994	124
1.78600001	-137.561996	262.722992	-101.345001	36.5900002	-28.9099998	30.0790005	125
1.79999995	-136.716003	262.562012	-100.172997	36.3479996	-28.9549999	29.927	126
1.81400001	-134.246994	261.934998	-99.1800003	36.2439995	-29.3799992	29.9689999	127
1.829	-135.544006	260.554993	-98.3280029	36.3600006	-29.1509991	29.6870003	128
1.84300005	-133.621994	262.174988	-98.3460007	36.1529999	-29.1410007	29.7970009	129
1.85699999	-133.158997	261.381012	-97.9329987	36.5929985	-29.1560001	29.9020004	130
1.87100005	-133.936996	261.286011	-98.4290009	36.4109993	-29.0410004	29.875	131
1.88600004	-132.645996	259.165985	-97.6449966	36.243	-29.3570004	30.0990009	132
1.89999998	-131.891998	260.654999	-97.8889999	36.3339996	-29.0970001	29.8920002	133
1.91400003	-131.451004	260.324005	-95.5619965	36.6310005	-29.0629997	29.9290009	134
1.92900002	-130.940002	260.088989	-96.0469971	36.6090012	-29.2210007	29.7420006	135
1.94299996	-129.628998	257.32901	-94.6409988	36.2939987	-29.1420002	30.0569992	136
1.95700002	-131.125	258.022003	-95.9950027	36.7019997	-28.9640007	29.9360008	137
1.97099996	-130.240997	257.843994	-95.5309982	36.3129997	-28.9379997	30.0240002	138
1.98599994	-129.492996	257.212006	-96.4909973	36.5449982	-29.0100002	29.8029995	139
2	-128.597	256.037994	-93.689003	36.4049988	-28.9300003	29.941	140
2.01399994	-129.367996	256.977997	-92.8099976	36.4980011	-29.0580006	29.9500008	141
2.02900004	-126.273003	254.906006	-95.2330017	36.2779999	-28.8670006	29.823	142
2.04299998	-126.933998	255.845993	-92.375	36.5919991	-29.1420002	29.8770008	143
2.05699992	-126.658997	254.703003	-93.2890015	36.6660004	-28.6760006	29.6450005	144
2.0710001	-126.242996	253.595001	-92.9560013	36.5540009	-28.9899998	29.6280003	145
2.08599997	-125.514	252.878006	-92.4219971	36.2439995	-29.1240005	29.7660007	146
2.0999999	-124.790001	252.692001	-90.9749985	36.4860001	-29.0960007	29.6819992	147
2.11400008	-124.806	254.356995	-91.1200027	36.3390007	-28.9360008	29.5499992	148
2.12899995	-123.744003	254.837006	-92.0149994	36.4949989	-29.0860004	29.7700005	149
2.14299989	-124.711998	252.632004	-89.7360001	36.1139984	-28.8950005	29.5860004	150
2.15700006	-123.323997	253.645004	-90.9459991	36.394001	-29.007	29.5179996	151
2.171	-122.019997	252.472	-89.8690033	36.5229988	-29.0179996	29.632	152
2.18600011	-120.371002	251.572998	-89.3570023	36.4309998	-29.1159992	29.4960003	153
2.20000005	-120.890999	251.854004	-88.3710022	36.4840012	-29.007	29.3419991	154
2.21399999	-121.121002	250.432999	-88.4319992	36.2480011	-28.7290001	29.691	155
2.22900009	-119.773003	250.789993	-86.0540009	36.2820015	-28.8309994	29.434	156
2.24300003	-119.686996	250.317993	-88.3069992	36.5470009	-28.6749992	29.7259998	157
2.25699997	-119.586998	249.384003	-86.1640015	36.6380005	-28.9720001	29.4759998	158
2.27099991	-117.911003	249.317001	-85.4980011	36.3359985	-29.2380009	29.4899998	159
2.28600001	-116.811996	248.992996	-86.4759979	36.1669998	-28.7619991	29.3600006	160
2.29999995	-116.699997	248.511993	-83.9469986	36.269001	-28.9570007	29.6100006	161
2.31399989	-116.821999	248.259995	-84.8440018	36.1279984	-28.7840004	29.6450005	162
2.329	-116.601997	247.082993	-85.3860016	36.2910004	-28.9179993	29.5739994	163
2.34299994	-115.117996	246.582001	-83.2330017	36.4770012	-28.9659996	29.5249996	164
2.35700011	-116.306999	245.960999	-82.9909973	36.5029984	-29.2320004	29.6200008	165
2.37100005	-114.396004	246.695007	-83.3379974	36.382	-28.8139992	29.5979996	166
2.38599992	-115.431999	245.348999	-83.5930023	36.4399986	-28.9860001	29.8770008	167
2.4000001	-114.126999	244.817001	-83.0270004	36.5219994	-28.8770008	29.6259995	168
2.41400003	-112.875999	246.386993	-81.9960022	36.2639999	-28.8969994	29.625	169
2.4289999	-112.778999	244.350998	-81.9509964	36.5289993	-29.1219997	29.5459995	170
2.44300008	-111.957001	244.132004	-83.2080002	36.2919998	-28.7029991	29.4309998	171
2.45700002	-111.749001	243.949997	-81.5130005	36.5820007	-29.0559998	29.5709991	172
2.47099996	-111.850998	242.595993	-81.6360016	36.4420013	-29.0440006	29.6660004	173
2.48600006	-110.043999	242.186996	-80.1579971	36.4700012	-29.2070007	29.2320004	174
2.5	-109.842003	242.781006	-77.0950012	36.6100006	-28.9689999	29.2310009	175
2.51399994	-110.338997	242.164993	-79.3509979	36.4679985	-28.8719997	29.3859997	176
2.52900004	-109.449997	242.432007	-79.5090027	36.3089981	-29.2420006	29.2989998	177
2.54299998	-107.160004	239.966003	-76.1660004	36.3230019	-29.0300007	29.2679996	178
2.55699992	-107.536003	242.292007	-77.336998	36.1619987	-29.1040001	29.4300003	179
2.5710001	-107.418999	239.862	-76.8799973	36.4490013	-28.8299999	29.3630009	180
2.58599997	-106.357002	239.447998	-78.4990005	36.2970009	-28.9669991	29.5130005	181
2.5999999	-107.945	239.345993	-76.4729996	36.5540009	-28.9080009	29.3579998	182
2.61400008	-107.449997	239.994003	-76.7949982	36.1360016	-28.9440002	29.4689999	183
2.62899995	-105.459	238.199997	-76.9100037	36.3160019	-28.9109993	29.3220005	184
2.64299989	-105.626999	237.681	-75.9459991	36.2439995	-28.7660007	29.3740005	185
2.65700006	-103.913002	236.764008	-75.7139969	36.4710007	-29.2929993	29.1590004	186
2.671	-103.355003	238.832001	-74.9649963	36.0489998	-28.9549999	29.4699993	187
2.68600011	-103.681999	237.371002	-72.375	36.3250008	-29.2950001	29.3449993	188
2.70000005	-103.408997	235.608994	-74.4430008	36.2550011	-28.8309994	29.2420006	189
2.71399999	-102.528999	236.768997	-72.7340012	36.3930016	-28.7989998	29.1289997	190
2.72900009	-99.5139999	235.251007	-72.8980026	36.3359985	-28.8850002	29.3500004	191
2.74300003	-101.833	233.945007	-71.3639984	36.3100014	-28.9899998	29.2119999	192
2.75699997	-101.095001	233.998001	-72.1439972	36.3639984	-28.9349995	29.2670002	193
2.77099991	-101.225998	234.664993	-71.0179977	36.2980003	-28.9939995	29.1690006	194
2.78600001	-101.139	232.778	-71.2109985	36.3880005	-28.8689995	29.0799999	195
2.79999995	-99.2399979	234.179993	-70.3099976	36.3349991	-28.6690006	29.448	196
2.81399989	-98.8450012	232.546005	-70.4089966	36.3149986	-28.8929996	29.2889996	197
2.829	-98.8389969	231.632004	-71.0370026	36.3110008	-28.8419991	29.2080002	198
2.84299994	-99.0360031	231.673004	-68.5439987	36.4379997	-28.9360008	29.6009998	199
2.85700011	-97.3089981	232.169998	-69.1600037	36.2840004	-29.1240005	29.2880001	200
2.87100005	-98.3310013	230.869995	-67.5999985	36.2509995	-28.8910007	29.448	201
2.88599992	-96.4710007	230.863007	-68.1719971	36.0330009	-29.0410004	29.1310005	202
2.9000001	-96.4899979	232.018005	-66.9609985	36.1069984	-29.0970001	29.2450008	203
2.91400003	-97.2919998	231.5	-67.0619965	36.355999	-28.8360004	29.3549995	204
2.9289999	-94.9420013	231.098999	-69.0019989	36.4179993	-28.8659992	29.3390007	205
2.94300008	-94.9250031	230.128006	-67.3600006	36.5979996	-28.7320004	29.0489998	206
2.95700002	-93.9649963	229.604996	-65.8970032	36.3610001	-28.8059998	29.1860008	207
2.97099996	-92.9459991	228.882004	-66.5449982	36.0509987	-28.9720001	29.2059994	208
2.98600006	-92.0279999	228.164993	-65.5569992	35.9230003	-28.9080009	29.2810001	209
3	-93.2630005	227.636002	-65.586998	36.2249985	-28.6700001	29.257	210
3.01399994	-91.5579987	227.643005	-65.2490005	36.2739983	-29.0149994	29.0119991	211
3.02900004	-91.2919998	227.875	-63.0919991	36.2220001	-28.8040009	29.1940002	212
3.04299998	-89.7679977	228.270004	-64.7799988	36.5940018	-28.8360004	29.2830009	213
3.05699992	-91.1600037	225.839005	-64.6159973	36.1100006	-28.8509998	29.1119995	214
3.0710001	-89.8899994	226.466995	-62.0429993	36.1870003	-28.9349995	29.5020008	215
3.08599997	-88.814003	225.287994	-62.7099991	36.2200012	-28.8239994	29.2070007	216
3.0999999	-89.7030029	224.468002	-62.7340012	36.2610016	-28.8950005	29.1520004	217
3.11400008	-88.4810028	224.511993	-61.6310005	36.1720009	-28.5720005	28.9459991	218
3.12899995	-85.9629974	223.901001	-61.2350006	36.4529991	-28.7080002	29.007	219
3.14299989	-87.4830017	223.628006	-60.3419991	36.3619995	-28.6529999	29.2059994	220
3.15700006	-86.1269989	223.399994	-60.2680016	35.9980011	-28.7180004	29.2180004	221
3.171	-87.0579987	222.565002	-60.0009995	36.4059982	-28.698	29.1560001	222
3.18600011	-85.387001	221.074005	-59.7900009	36.269001	-28.4839993	29.2049999	223
3.20000005	-85.5790024	222.386002	-58.5859985	36.2980003	-28.6459999	28.8129997	224
3.21399999	-84.1669998	221.513	-59.848999	36.151001	-28.7049999	29.2420006	225
3.22900009	-84.5090027	220.604996	-58.7770004	36.1580009	-28.4820004	29.1970005	226
3.24300003	-83.0579987	220.671997	-58.4049988	35.9720001	-28.3220005	29.1229992	227
3.25699997	-82.1790009	220.332001	-57.8779984	36.3019981	-28.4820004	29.2409992	228
3.27099991	-83.7990036	220.324005	-57.4480019	36.2410011	-28.6889992	29.0450001	229
3.28600001	-81.1849976	220.268005	-57.3300018	36.1119995	-28.2819996	29.0170002	230
3.29999995	-81.685997	218.972	-55.2299995	36.0449982	-28.6369991	29.0450001	231
3.31399989	-81.4550018	219.373993	-55.0379982	36.1329994	-28.5440006	29.1389999	232
3.329	-79.9049988	219.585999	-57.0970001	35.9900017	-28.2380009	29.4899998	233
3.34299994	-80.3420029	216.134995	-56.5610008	36.0159988	-28.4050007	29.2989998	234
3.35700011	-78.2910004	218.796997	-55.2459984	36.0620003	-28.4060001	28.9790001	235
3.37100005	-78.2799988	217.516998	-52.980999	36.2659988	-28.6679993	28.9349995	236
3.38599992	-78.0130005	217.104004	-51.6910019	36.3100014	-28.5550003	29.0799999	237
3.4000001	-77.8499985	215.820999	-53.7010002	36.2639999	-28.4510002	29.3169994	238
3.41400003	-77.612999	217.306	-53.6349983	36.4239998	-28.2229996	29.1499996	239
3.4289999	-77.5159988	214.496994	-51.3600006	36.5410004	-28.8409996	29.1580009	240
3.44300008	-76.6959991	214.813004	-51.8479996	36.0439987	-28.4050007	29.3950005	241
3.45700002	-75.802002	215.145996	-51.7519989	36.0309982	-28.3850002	29.0769997	242
3.47099996	-75.4990005	213.572998	-51.1160011	36.2639999	-28.4729996	29.2199993	243
3.48600006	-74.0130005	212.953003	-50.3110008	36.2739983	-28.507	28.8929996	244
3.5	-74.2630005	213.770996	-49.6889992	36.2449989	-28.3869991	28.9960003	245
3.51399994	-75.1839981	214.080002	-50.2070007	36.3759995	-28.5249996	29.2700005	246
3.52900004	-72.3700027	212.026001	-50.1790009	36.3079987	-28.5550003	29.1049995	247
3.54299998	-73.0699997	211.223007	-49.5740013	36.2050018	-28.5090008	29.1970005	248
3.55699992	-70.586998	211.912003	-48.7410011	36.362999	-28.4710007	28.9799995	249
3.5710001	-71.6210022	211.447006	-48.387001	36.0999985	-28.5410004	29.052	250
3.58599997	-71.1309967	211.134003	-47.2529984	36.4220009	-28.6380005	29.0860004	251
3.5999999	-69.0899963	209.309998	-46.2490005	36.3989983	-28.5930004	28.8320007	252
3.61400008	-70.7289963	210.768997	-46.5519981	36.3320007	-28.5830002	29.2000008	253
3.62899995	-70.4079971	210.179001	-47.8269997	36.4119987	-28.7240009	28.9020004	254
3.64299989	-70.1380005	209.561005	-46.4049988	36.3510017	-28.5130005	29.2360001	255
3.65700006	-67.7360001	210.582993	-44.8149986	36.3610001	-28.4529991	29.2900009	256
3.671	-67.2289963	208.475006	-46.2750015	36.6650009	-28.4570007	29.1009998	257
3.68600011	-66.6050034	208.248001	-44.5760002	36.1599998	-28.566	29.0839996	258
3.70000005	-66.8010025	207.675003	-44.7099991	36.3660011	-28.5119991	29.3110008	259
3.71399999	-65.5999985	207.013	-43.9679985	36.5369987	-28.2420006	29.0990009	260
3.72900009	-66.8769989	205.908005	-42.7229996	36.4480019	-28.2999992	29.1889992	261
3.74300003	-64.1309967	206.259995	-43.8849983	36.3289986	-28.0209999	29.0930004	262
3.75699997	-65.0339966	207.162994	-42.5890007	36.6959991	-28.2360001	28.9640007	263
3.77099991	-64.7789993	205.619003	-41.9090004	36.7700005	-28.3479996	29.3050003	264
3.78600001	-63.1529999	205.238007	-42.1090012	36.3540001	-28.4979992	29.4179993	265
3.79999995	-64.0410004	203.421005	-40.882	36.3359985	-28.3500004	29.0540009	266
3.81399989	-62.7159996	203.996002	-42.9129982	36.3069992	-28.3810005	29.1569996	267
3.829	-63.1399994	204.197998	-39.7599983	36.5439987	-28.6049995	29.0680008	268
3.84299994	-62.3849983	203.707993	-39.3769989	36.6259995	-28.5480003	28.9559994	269
3.85700011	-63.1800003	202.492996	-40.0789986	36.3310013	-28.4459991	28.8430004	270
3.87100005	-59.6459999	203.149994	-38.8419991	36.2070007	-28.4290009	28.9969997	271
3.88599992	-60.2610016	203.128006	-40.2560005	36.5909996	-28.2849998	28.8129997	272
3.9000001	-59.9500008	202.091995	-40.0900002	36.223999	-28.4080009	28.9519997	273
3.91400003	-58.4679985	203.487	-37.6809998	36.6619987	-28.257	29.1170006	274
3.9289999	-59.526001	203.106003	-37.2900009	36.3330002	-28.3339996	29.066	275
3.94300008	-58.598999	200.802002	-39.1389999	36.7799988	-28.3570004	29.1439991	276
3.95700002	-55.4580002	200.867996	-37.0569992	36.5690002	-28.2630005	29.1809998	277
3.97099996	-56.4440002	198.945999	-36.8419991	36.730999	-28.3950005	28.8250008	278
3.98600006	-57.2910004	199.408005	-36.6640015	36.7400017	-28.125	28.9580002	279
4	-56.2960014	199.276001	-37.2019997	36.7799988	-28.2800007	28.8929996	280
4.01399994	-55.8569984	198.138	-36.7389984	36.7260017	-28.1730003	28.9139996	281
4.02899981	-55.1879997	198.884003	-34.5509987	36.4090004	-28.1079998	28.5939999	282
4.04300022	-54.6599998	199.628006	-34.7900009	36.6809998	-28.2080002	28.6700001	283
4.05700016	-54.3400002	197.761002	-35.2830009	36.8860016	-28.3500004	28.875	284
4.0710001	-53.3689995	197.651993	-34.144001	36.6479988	-28.2900009	28.7889996	285
4.08599997	-53.0009995	196.082001	-33.4140015	36.882	-28.2199993	28.6730003	286
4.0999999	-52.2700005	197.098007	-31.8789997	36.762001	-28.2119999	28.677	287
4.11399984	-53.257	196.285995	-33.8059998	36.7010002	-28.1819992	28.7019997	288
4.12900019	-51.1020012	195.348007	-33.4900017	36.8699989	-27.8519993	28.493	289
4.14300013	-51.0960007	195.436996	-33.0639992	36.6749992	-28.0849991	28.6270008	290
4.15700006	-51.7200012	195.403	-31.0079994	36.5499992	-28.0820007	28.3850002	291
4.171	-51.0079994	195.171005	-31.5130005	36.5379982	-28.1259995	28.6800003	292
4.18599987	-49.6959991	193.886993	-29.8619995	36.737999	-27.7689991	28.5370007	293
4.19999981	-49.7410011	193.192993	-29.1849995	36.3969994	-28.2059994	28.4249992	294
4.21400023	-49.1850014	193.567001	-30.0079994	36.7319984	-27.9950008	28.8180008	295
4.22900009	-47.5530014	193.494995	-28.2460003	36.9640007	-27.8560009	28.5259991	296
4.24300003	-46.1590004	193.166	-27.4799995	36.5569992	-27.8610001	28.316	297
4.25699997	-46.6769981	193.067993	-29.2240009	36.6679993	-27.743	28.3740005	298
4.27099991	-45.6739998	192.731995	-26.5639992	36.9440002	-28.0340004	28.3889999	299
4.28599977	-45.7400017	192.761002	-28.3990002	36.9459991	-27.9139996	28.4200001	300
4.30000019	-45.3530006	191.067001	-28.0389996	36.8370018	-27.8339996	28.5300007	301
4.31400013	-46.5379982	190.850006	-26.5400009	36.9949989	-28.0529995	28.434	302
4.329	-44.1150017	188.802002	-26.5450001	36.7729988	-28.3519993	28.5450001	303
4.34299994	-42.6699982	190.227005	-26.6049995	37.1479988	-28.1340008	28.3220005	304
4.35699987	-44.2050018	188.121994	-25.9500008	36.9070015	-27.9179993	28.8850002	305
4.37099981	-42.8839989	189.884995	-25.316	36.8240013	-28.1229992	28.4120007	306
4.38600016	-42.3419991	188.847	-25.4979992	36.9199982	-28.2399998	28.4710007	307
4.4000001	-40.4039993	188.225006	-23.8040009	36.8829994	-28.177	28.5580006	308
4.41400003	-40.5489998	187.858994	-24.441	36.8009987	-28.1989994	28.507	309
4.4289999	-40.3339996	186.779999	-23.7000008	36.8540001	-27.5790005	28.2250004	310
4.44299984	-38.5540009	187.037003	-23.3850002	36.7459984	-27.6509991	28.5200005	311
4.45699978	-38.3720016	186.871002	-22.2460003	36.9589996	-27.8330002	28.4689999	312
4.47100019	-38.6580009	185.233002	-22.7660007	37.3839989	-28.073	28.5809994	313
4.48600006	-38.7200012	186.130005	-22.4440002	36.8380013	-28.3040009	28.2070007	314
4.5	-36.9560013	185.906006	-20.8610001	36.7340012	-28.0540009	28.3330002	315
4.51399994	-37.0340004	185.001999	-22.0979996	37.0180016	-27.8700008	28.1299992	316
4.52899981	-36.5149994	184.128998	-22.1849995	36.875	-27.7310009	28.3390007	317
4.54300022	-34.9440002	184.050003	-20.5179996	37.2120018	-27.5100002	28.0370007	318
4.55700016	-34.4900017	182.403	-19.8360004	37.3040009	-28.0699997	28.059	319
4.5710001	-35.0919991	183.496994	-19.6550007	37.3530006	-27.8390007	27.8360004	320
4.58599997	-32.9440002	182.410004	-20.3829994	37.2630005	-27.632	28.3869991	321
4.5999999	-33.6040001	182.496002	-18.1609993	37.2400017	-27.8490009	28.3220005	322
4.61399984	-35.1209984	182.281006	-17.5869999	37.2190018	-27.9729996	28.3859997	323
4.62900019	-31.9309998	181.115005	-17.691	36.9029999	-27.7059994	28.1560001	324
4.64300013	-31.4839993	182.136993	-17.3209991	37.0079994	-27.8549995	28.7140007	325
4.65700006	-32.1990013	180.755005	-16.4610004	37.0970001	-27.8419991	28.1620007	326
4.671	-31.1749992	179.891006	-16.6459999	37.269001	-27.8479996	28.3400002	327
4.68599987	-30.1590004	181.307007	-15.3590002	37.1910019	-27.5179996	27.8880005	328
4.69999981	-28.6389999	180.158005	-15.5869999	37.0449982	-27.6499996	28.3379993	329
4.71400023	-29.868	179.528	-17.0049992	37.6500015	-27.7299995	28.1380005	330
4.72900009	-27.7380009	179.729996	-14.9639997	37.3359985	-27.5400009	28.3099995	331
4.74300003	-27.0599995	177.656006	-15.7770004	37.1170006	-27.7619991	28.2619991	332
4.75699997	-28.941	178.660995	-15.3929996	36.9630013	-27.8220005	28.0209999	333
4.77099991	-27.8719997	178.537003	-13.8990002	37.019001	-27.5090008	28.066	334
4.78599977	-28.0879993	178.787994	-13.3369999	37.4550018	-28.0259991	28.1930008	335
4.80000019	-25.5869999	176.436996	-12.2589998	37.4039993	-27.8250008	27.948	336
4.81400013	-26.0419998	177.302002	-13.4090004	37.3899994	-28.0489998	28.0890007	337
4.829	-24.1630001	176.697998	-12.415	37.5270004	-27.6679993	28.073	338
4.84299994	-25.1560001	174.505005	-11.8409996	37.4550018	-27.8560009	28.0219994	339
4.85699987	-24.5979996	176.014008	-9.97299957	37.5159988	-28.0279999	27.9009991	340
4.87099981	-23.6930008	174.761993	-10.7320004	37.4350014	-27.6830006	28.1200008	341
4.88600016	-22.8600006	175.729004	-10.4119997	37.5979996	-27.7469997	27.8939991	342
4.9000001	-21.0559998	174.798004	-9.94400024	37.3549995	-27.7409992	28.0690002	343
4.91400003	-22.125	175.179001	-11.3879995	37.632	-27.8220005	27.9290009	344
4.9289999	-22.7229996	173.727997	-10.2480001	37.7019997	-27.5569992	28.0400009	345
4.94299984	-21.2000008	172.740997	-9.85700035	37.5270004	-27.7730007	27.5799999	346
4.95699978	-18.427	173.097	-7.86800003	37.4510002	-27.9640007	27.9230003	347
4.97100019	-20.6079998	173.653	-9.45800018	37.5530014	-27.8869991	28.0030003	348
4.98600006	-19.7290001	170.912003	-8.23499966	37.7859993	-27.5540009	28.0629997	349
5	-19.4169998	172.311005	-7.72800016	37.5239983	-27.4080009	28.0540009	350
5.01399994	-17.2150002	170.531998	-6.57600021	37.3339996	-27.8239994	27.5410004	351
5.02899981	-17.7639999	169.977997	-5.84100008	37.5079994	-27.4640007	27.6790009	352
5.04300022	-16.8990002	169.128998	-6.15299988	37.4410019	-27.5939999	27.5599995	353
5.05700016	-16.8470001	170.522995	-6.48099995	37.6699982	-27.5769997	27.7830009	354
5.0710001	-16.3939991	169.820999	-5.80499983	37.4099998	-27.8540001	27.9230003	355
5.08599997	-16.1340008	168.304993	-5.75299978	37.5649986	-27.743	27.4960003	356
5.0999999	-15.5159998	169.882004	-5.56599998	37.0880013	-27.5809994	27.3530006	357
5.11399984	-14.2959995	168.466003	-3.42199993	37.3110008	-27.3759995	27.8239994	358
5.12900019	-13.6190004	168.729004	-3.204	37.6930008	-27.7150002	27.7159996	359
5.14300013	-10.8520002	167.927002	-3.06900001	37.6160011	-27.5470009	27.5259991	360
5.15700006	-11.8369999	167.794998	-3.17700005	37.3510017	-27.7660007	27.5769997	361
5.171	-13.5010004	164.662003	-2.94099998	37.5229988	-27.375	27.4279995	362
5.18599987	-12.1459999	167.826004	-0.34799999	37.7060013	-27.4839993	27.5550003	363
5.19999981	-11.3920002	166.589996	-2.00600004	37.6860008	-27.2639999	27.3799992	364
5.21400023	-9.99300003	164.162003	-1.20000005	37.7290001	-27.4790001	27.3369999	365
5.22900009	-9.63700008	167.317993	-1.245	37.887001	-27.5340004	27.3999996	366
5.24300003	-9.88399982	164.147003	-1.04499996	37.605999	-27.6429996	27.7280006	367
5.25699997	-8.55500031	164.460999	-0.637000024	37.5499992	-27.6940002	27.448	368
5.27099991	-8.34899998	163.104004	-1.50600004	37.6870003	-27.7250004	27.4780006	369
5.28599977	-8.72200012	163.985992	-0.0839999989	37.6590004	-27.4820004	27.2199993	370
5.30000019	-5.98199987	164.001999	0.00800000038	37.4889984	-27.5189991	27.1970005	371
5.31400013	-7.73999977	162.632004	2.29999995	37.8230019	-27.4599991	27.3299999	372
5.329	-6.86299992	161.475006	0.354000002	37.6769981	-27.7880001	27.4020004	373
5.34299994	-7.07700014	160.431	1.90699995	37.9300003	-27.4470005	27.5400009	374
5.35699987	-4.60099983	161.574005	2.31699991	37.862999	-27.5330009	27.4599991	375
5.37099981	-5.39300013	160.457001	4.27699995	38.0719986	-27.4319992	27.1639996	376
5.38600016	-3.1559999	160.516998	4.31500006	37.6409988	-27.5550003	27.2749996	377
5.4000001	-1.73300004	160.220993	2.61999989	37.8610001	-27.4029999	27.2169991	378
5.41400003	-3.05699992	159.281006	4.75	37.6619987	-27.4880009	27.2469997	379
5.4289999	-2.67499995	158.977997	4.24300003	37.8079987	-27.6889992	27.3449993	380
5.44299984	-1.12600005	159.574005	2.77200007	37.7989998	-27.1819992	27.1590004	381
5.45699978	-1.39499998	157.865005	5.04099989	37.7439995	-27.5760002	27.1490002	382
5.47100019	-1.29900002	159.417999	5.49900007	37.743	-27.5860004	26.9529991	383
5.48600006	-0.782000005	157.214996	6.10599995	37.9959984	-27.2889996	26.9109993	384
5.5	0.620000005	157.348007	5.296	37.848999	-27.6060009	27.3500004	385
5.51399994	0.023	157.354004	5.94399977	37.987999	-27.4319992	27.0680008	386
5.52899981	1.49399996	157.300995	6.94299984	37.6660004	-27.5970001	27.0349998	387
5.54300022	2.22600007	155.891998	7.15999985	37.7789993	-27.5480003	26.8710003	388
5.55700016	2.29299998	156.042007	6.41699982	37.5569992	-27.4599991	26.9599991	389
5.5710001	2.24099994	154.927994	7.38500023	37.9189987	-27.5009995	27.0769997	390
5.58599997	3.63100004	154.326004	7.40700006	37.75	-27.4200001	26.9769993	391
5.5999999	2.68799996	156.061005	6.58699989	37.6430016	-27.3050003	27.0450001	392
5.61399984	4.22200012	153.283997	9.02200031	37.5929985	-27.3950005	26.9549999	393
5.62900019	4.72900009	153.899002	10.1389999	37.5709991	-27.2019997	27.0419998	394
5.64300013	5.64499998	154.966003	9.70100021	37.8180008	-27.2530003	27.1079998	395
5.65700006	7.8670001	153.147995	9.24199963	37.8069992	-27.2240009	26.9939995	396
5.671	6.796	153.078003	10.3109999	37.6899986	-27.3199997	27.118	397
5.68599987	6.88800001	153.865997	11.2299995	37.9109993	-27.3719997	27.1420002	398
5.69999981	8.39799976	153.453995	11.4280005	37.9080009	-27.0470009	27.1720009	399
5.71400023	7.92399979	150.910004	12.3850002	37.6160011	-27.3649998	26.7450008	400
5.72900009	7.8579998	150.753006	11.6000004	37.5810013	-27.559	26.9440002	401
5.74300003	8.36600018	150.218994	11.6009998	37.7980003	-27.316	26.868	402
5.75699997	9.53499985	150.546005	12.3310003	37.6969986	-26.9860001	26.8029995	403
5.77099991	9.78899956	150.403	14.0139999	37.7910004	-27.4419994	27.0739994	404
5.78599977	11.5200005	150.604996	13.8620005	37.6259995	-27.6149998	26.6830006	405
5.80000019	11.3879995	147.811005	15.1680002	37.9210014	-27.6159992	26.8799992	406
5.81400013	12.9090004	148.923996	15.7259998	37.4220009	-27.1800003	26.7649994	407
5.829	11.4040003	148.347	14.1379995	37.9830017	-27.5849991	26.9319992	408
5.84299994	12.9589996	147.878006	15.3660002	37.4339981	-27.5919991	26.9610004	409
5.85699987	12.7390003	146.100006	16.8850002	37.4599991	-27.573	26.8460007	410
5.87099981	13.4560003	145.666	14.5480003	37.6030006	-27.1879997	26.9300003	411
5.88600016	14.8660002	146.591995	17.5189991	37.519001	-27.4519997	27.1299992	412
5.9000001	14.5790005	145.768997	17.7350006	37.8400002	-27.0990009	26.6539993	413
5.91400003	15.4069996	146.490997	17.9430008	37.644001	-26.7619991	27.0170002	414
5.9289999	15.1949997	146.496002	17.6299992	37.8380013	-26.9829998	26.8449993	415
5.94299984	17.302	144.470001	18.0900002	37.7159996	-27.257	27.125	416
5.95699978	17.0289993	146.106995	18.1450005	37.7099991	-27.2549992	26.8600006	417
5.97100019	18.2849998	144.608002	18.4009991	37.5470009	-27.0480003	27.0240002	418
5.98600006	17.2189999	143.880005	20.7159996	37.7420006	-27.3929996	26.6730003	419
6	18.0739994	142.738998	19.0139999	37.5929985	-27.3649998	26.802	420
6.01399994	18.7630005	143.501007	20.0230007	37.4249992	-27.0419998	26.6779995	421
6.02899981	20.5389996	143.091995	19.0429993	37.9539986	-26.9750004	26.7549992	422
6.04300022	21.2140007	143.065994	20.7520008	37.7490005	-27.1940002	26.9720001	423
6.05700016	21.9200001	142.929993	20.5540009	37.5390015	-26.7619991	26.8889999	424
6.0710001	21.191	140.621002	20.6660004	37.6949997	-27.1130009	26.8840008	425
6.08599997	21.5760002	141.190994	21.4610004	37.4339981	-27.2089996	26.7630005	426
6.0999999	23.0380001	141.276001	22.2880001	37.5750008	-27.0769997	26.6989994	427
6.11399984	21.8269997	142.037994	23.2740002	37.8059998	-26.7159996	26.7010002	428
6.12900019	23.2709999	140.990997	21.2900009	37.4570007	-27.4759998	26.6620007	429
6.14300013	24.6229992	139.983002	23.7320004	37.7659988	-27.2539997	26.6889992	430
6.15700006	24.1040001	138.824005	23.7880001	37.3240013	-27.0820007	26.4160004	431
6.171	25.9939995	138.878998	24.4529991	37.6199989	-27.0979996	26.5569992	432
6.18599987	24.5440006	137.602005	24.2749996	37.5859985	-27.0709991	26.8279991	433
6.19999981	25.5849991	137.753006	24.4309998	37.5270004	-27.1009998	26.8199997	434
6.21400023	26.6119995	140.061996	23.8169994	37.7159996	-27.0219994	26.3549995	435
6.22900009	27.5869999	137.488007	25.8910007	36.8569984	-27.0919991	26.493	436
6.24300003	28.1270008	137.026001	26.9939995	37.4490013	-27.2019997	26.3549995	437
6.25699997	28.7479992	137.283997	26.7639999	37.387001	-27.2399998	26.5440006	438
6.27099991	28.2679996	137.294998	27.632	37.4480019	-27.0380001	26.5849991	439
6.28599977	30.8490009	136.514008	27.6730003	37.223999	-27.1599998	26.5079994	440
6.30000019	29.0200005	136.776993	26.9090004	37.4780006	-26.7080002	26.6009998	441
6.31400013	30.5750008	136.481995	27.0230007	37.4980011	-26.8570004	26.2119999	442
6.329	31.5279999	133.960999	29.1140003	37.5419998	-27.0629997	26.7159996	443
6.34299994	31.9360008	135.052994	28.4209995	37.5340004	-27.2000008	26.5319996	444
6.35699987	30.9829998	134.507996	28.5249996	37.4599991	-27.2140007	26.4720001	445
6.37099981	33.1100006	134.317001	30.9890003	37.2639999	-27.1299992	26.2700005	446
6.38600016	32.5410004	135.322006	29.4220009	37.3849983	-27.0440006	26.2630005	447
6.4000001	34.1739998	133.113998	28.9220009	37.3709984	-26.5310001	26.1420002	448
6.41400003	35.9770012	132.828003	31.2099991	37.6839981	-26.9899998	26.3939991	449
6.4289999	33.6419983	131.906998	31.2900009	37.3409996	-26.8150005	26.6739998	450
6.44299984	35.9370003	132.153	31.3239994	37.2739983	-26.6060009	26.4790001	451
6.45699978	36.2680016	133.531998	32.598999	37.5750008	-26.618	26.1700001	452
6.47100019	35.9080009	131.662003	31.3290005	37.2060013	-26.7719994	26.1959991	453
6.48600006	36.5730019	129.218002	31.4179993	37.2060013	-27.0259991	26.2229996	454
6.5	38.0250015	130.283005	33.0750008	37.5719986	-26.7290001	26.073	455
6.51399994	38.5740013	129.134995	32.7299995	37.3190002	-26.7259998	26.1450005	456
6.52899981	37.7729988	129.688004	33.1030006	37.3219986	-26.7250004	26.2099991	457
6.54300022	39.1819992	130.029007	34.637001	37.3969994	-26.7420006	26.2080002	458
6.55700016	39.8230019	129.356003	34.6759987	37.4720001	-26.8269997	26.1590004	459
6.5710001	39.2150002	128.475998	33.9620018	37.4169998	-26.5680008	26.0179996	460
6.58599997	40.8639984	128.522995	34.9749985	37.0369987	-26.5219994	26.1959991	461
6.5999999	41.9900017	127.016998	36.0050011	37.0660019	-26.4230003	26.132	462
6.61399984	41.2820015	127.431	36.6780014	37.2220001	-26.757	26.1070004	463
6.62900019	42.0159988	127.468002	35.9749985	37.2369995	-26.6849995	26.2310009	464
6.64300013	42.6819992	126.347	36.4269981	37.3069992	-26.2280006	26.4130001	465
6.65700006	41.4300003	126.991997	37.5079994	37.3829994	-26.4510002	26.2080002	466
6.671	43.0009995	126.221001	37.5180016	37.3079987	-26.6509991	25.743	467
6.68599987	44.8059998	126.869003	38.1549988	37.151001	-26.2189999	26.0699997	468
6.69999981	44.2849998	125.878998	38.2159996	37.2039986	-26.3780003	26.3449993	469
6.71400023	45.9319992	124.454002	39.757	37.0309982	-26.2950001	25.9099998	470
6.72900009	47.6399994	126.018997	38.4830017	37.2700005	-26.4029999	25.993	471
6.74300003	47.5419998	123.793999	39.3129997	37	-26.382	26.0900002	472
6.75699997	48.4959984	123.001999	40.2099991	37.2169991	-26.3180008	26.0389996	473
6.77099991	46.4869995	123.370003	39.2249985	37.2579994	-26.5769997	25.9860001	474
6.78599977	48.5880013	121.848999	40.5309982	37.3429985	-26.3770008	26.2350006	475
6.80000019	48.7999992	124.814003	41.5999985	37.1710014	-26.573	25.8610001	476
6.81400013	50.5169983	123.598	41.1629982	37.2210007	-26.4799995	26.2220001	477
6.829	49.1389999	120.607002	41.1220016	37.1629982	-26.3530006	25.7770004	478
6.84299994	50.2010002	121.112	41.3470001	37.2840004	-26.4599991	25.677	479
6.85699987	50.9090004	120.742996	40.8930016	37.2280006	-26.2089996	25.8110008	480
6.87099981	51.7400017	120.653	43.6590004	37.1839981	-26.2609997	25.7380009	481
6.88600016	52.0999985	120.613998	42.8839989	37.2879982	-26.625	25.8419991	482
6.9000001	52.0429993	119.686996	44.5029984	36.9550018	-25.8780003	25.7119999	483
6.91400003	51.7779999	119.686996	43.4519997	36.8339996	-26.1520004	25.7800007	484
6.9289999	53.776001	119.133003	43.9519997	37.1450005	-26.4039993	25.8080006	485
6.94299984	54.2770004	118.343002	44.1100006	37.2190018	-26.4860001	25.8479996	486
6.95699978	53.4669991	119.168999	45.7900009	37.2540016	-26.0699997	25.9039993	487
6.97100019	53.1160011	119.397003	44.8790016	36.9990005	-26.1569996	25.9529991	488
6.98600006	55.9360008	118.511002	45.8190002	37.0040016	-26.2320004	25.618	489
7	54.5740013	117.377998	45.7680016	37.1860008	-26.0090008	25.8560009	490
7.01399994	57.7770004	116.908997	47.3400002	37.394001	-26.1879997	25.9519997	491
7.02899981	57.4000015	115.000999	45.9399986	37.0639992	-26.0160007	25.9099998	492
7.04300022	57.0810013	114.739998	46.7330017	36.7010002	-26.323	25.6930008	493
7.05700016	56.6269989	116.375999	49.8790016	36.8709984	-25.7590008	25.8850002	494
7.0710001	58.2610016	116.099998	46.7649994	36.9959984	-26.1690006	26.0559998	495
7.08599997	58.4410019	115.587997	49.1279984	36.9309998	-26.0359993	25.684	496
7.0999999	58.2789993	114.605003	48.1739998	37.2070007	-25.8339996	25.9810009	497
7.11399984	61.0460014	115.709999	49.5320015	37.2179985	-25.9130001	25.9979992	498
7.12900019	60.6119995	112.596001	49.8139992	37.0379982	-26.0370007	25.9130001	499
7.14300013	61.2989998	113.189003	49.2709999	36.9490013	-26.0049992	26.0240002	500
7.15700006	61.0149994	113.542	51.151001	37.1529999	-25.9209995	26	501
7.171	62.4220009	114.308998	51.4920006	37.0890007	-26.0149994	25.7700005	502
7.18599987	62.3650017	112.439003	50.1609993	36.8590012	-25.7059994	25.7919998	503
7.19999981	64.6740036	111.394997	51.637001	37.0589981	-25.8920002	25.6819992	504
7.21400023	62.9140015	112.328003	52.0180016	37.1459999	-25.8519993	25.9440002	505
7.22900009	66.7580032	111.468002	51.4440002	36.644001	-26.1110001	25.6240005	506
7.24300003	64.5940018	112.426003	51.5209999	37.0960007	-25.5100002	25.6760006	507
7.25699997	65.0749969	111.877998	52.2480011	36.6339989	-25.5869999	26.0860004	508
7.27099991	65.2779999	112.091003	53.3889999	36.8889999	-25.9969997	25.8770008	509
7.28599977	66.6439972	108.876999	52.5979996	36.6829987	-26.0429993	25.7530003	510
7.30000019	67.5839996	111.466003	53.4309998	36.8959999	-25.8430004	25.934	511
7.31400013	66.9860001	109.365997	54.4179993	36.8699989	-25.6380005	25.5599995	512
7.329	67.2539978	109.058998	56.2340012	36.8110008	-25.6439991	25.7740002	513
7.34299994	70.4570007	108.320999	55.3370018	36.6839981	-25.7810001	25.6760006	514
7.35699987	68.4550018	108	55.7449989	36.75	-25.809	25.7619991	515
7.37099981	68.887001	109.358002	54.1290016	36.9239998	-25.5330009	25.5249996	516
7.38600016	70.0459976	107.471001	57.6069984	36.737999	-25.8059998	25.3570004	517
7.4000001	70.7779999	106.584	55.776001	36.6399994	-25.6019993	25.4810009	518
7.41400003	70.9520035	106.083	56.0299988	36.723999	-25.6289997	25.7630005	519
7.4289999	73.8990021	104.669998	57.0040016	36.8860016	-25.6879997	25.8099995	520
7.44299984	72.7570038	107.710999	55.9949989	36.7599983	-25.382	25.4020004	521
7.45699978	72.9160004	105.022003	56.4430008	36.7939987	-25.2730007	25.5799999	522
7.47100019	73.0490036	104.643997	57.6360016	36.6590004	-25.5799999	25.4349995	523
7.48600006	74.5240021	105.055	59.9389992	36.5480003	-25.5279999	25.6200008	524
7.5	73.7789993	105.783997	58.6459999	36.8190002	-25.2940006	25.7549992	525
7.51399994	74.5339966	105.464996	59.5369987	36.7439995	-25.5849991	25.5790005	526
7.52899981	76.0449982	102.949997	59.4070015	36.5270004	-25.3859997	25.5310001	527
7.54300022	75.4990005	101.996002	60.7360001	36.9510002	-25.4920006	25.4279995	528
7.55700016	76.9380035	104.000999	61.1839981	36.5410004	-25.4120007	25.3740005	529
7.5710001	78.2750015	101.959	60.8510017	36.4819984	-25.3619995	25.4510002	530
7.58599997	78.6539993	102.806999	61.5	36.4210014	-25.1200008	25.4060001	531
7.5999999	78.2249985	101.723	61.6599998	36.3930016	-25.2730007	25.3190002	532
7.61399984	77.0759964	102.794998	62.6209984	36.4449997	-25.3540001	25.3180008	533
7.62900019	78.5299988	101.186996	60.8720016	36.3059998	-25.6779995	25.0569992	534
7.64300013	80.2900009	102.292	63.3709984	36.4609985	-25.5160007	25.5219994	535
7.65700006	80.4079971	101.545998	63.9609985	36.3030014	-25.5189991	25.1889992	536
7.671	81.5650024	100.644997	63.6959991	36.6850014	-25.566	25.4430008	537
7.68599987	81.9029999	99.9599991	62.762001	36.4039993	-25.2159996	25.4969997	538
7.69999981	82.0950012	99.5360031	62.7319984	36.1940002	-25.323	25.4619999	539
7.71400023	82.387001	99.4029999	64.7519989	36.6020012	-25.3530006	25.4130001	540
7.72900009	83.961998	99.0220032	66.6920013	36.2809982	-25.2269993	25.4300003	541
7.74300003	82.6380005	95.5080032	64.7040024	36.1500015	-25.1469994	25.4850006	542
7.75699997	82.711998	97.5759964	65.7409973	36.0830002	-25.3360004	25.3840008	543
7.77099991	85.0319977	98.4550018	65.9150009	36.3320007	-25.2900009	25.2509995	544
7.78599977	84.4100037	96.7419968	64.5920029	36.5419998	-25.2590008	25.4540005	545
7.80000019	84.8690033	96.0759964	64.4779968	36.276001	-25.4190006	25.0639992	546
7.81400013	86.2740021	96.1910019	67.7819977	36.2910004	-25.3050003	25.2910004	547
7.829	86.2160034	95.0780029	67.2470016	36.118	-25.4179993	25.1210003	548
7.84299994	86.9349976	96.3239975	66.8389969	36.2680016	-25.0179996	25.0200005	549
7.85699987	86.7190018	96.0469971	67.6360016	36.2960014	-25.1490002	25.3939991	550
7.87099981	89.8880005	94.1640015	67.4550018	36.3079987	-25.2329998	25.0779991	551
7.88600016	90.302002	93.2409973	68.9160004	36.1049995	-25.1210003	25.0990009	552
7.9000001	88.7269974	94.5859985	69.6699982	36.0439987	-25.0149994	24.9349995	553
7.91400003	89.6790009	93.4229965	67.6579971	36.3429985	-24.8869991	25.1280003	554
7.9289999	89.1009979	94.7129974	71.1100006	35.9249992	-25.0809994	25.2089996	555
7.94299984	89.3180008	92.2969971	70.8899994	35.7919998	-25.052	25.2059994	556
7.95699978	90.5930023	93.1559982	70.0350037	36.0349998	-25.0669994	25.1669998	557
7.97100019	91.2890015	93.5289993	70.9560013	36.0359993	-25.1000004	24.7700005	558
7.98600006	91.8130035	92.151001	70.7030029	36.0760002	-25.1700001	25.2759991	559
8	93.4970016	91.9100037	71.4769974	36.2630005	-25.1019993	24.927	560
8.01399994	92.3499985	93.1800003	71.012001	35.7649994	-24.8999996	24.8509998	561
8.02900028	94.7300034	91.7190018	72.0329971	35.7389984	-25.0429993	24.7679996	562
8.04300022	94.8740005	90.6740036	73.6399994	36.0489998	-25.3869991	24.8029995	563
8.05700016	93.9349976	89.8479996	73.8379974	35.9580002	-25.0620003	24.8299999	564
8.0710001	94.2170029	87.935997	72.2610016	35.6969986	-24.9659996	24.8390007	565
8.08600044	94.2340012	90.5220032	73.901001	35.868	-25.1919994	25.1170006	566
8.10000038	96.6429977	91.2210007	73.0339966	35.8269997	-25.2479992	24.8980007	567
8.11400032	96.6230011	88.3970032	74.4499969	36.1980019	-24.8400002	25.073	568
8.12899971	97.6559982	88.3320007	75.5920029	35.7410011	-24.677	24.9710007	569
8.14299965	98.9339981	88.4120026	76.538002	35.6839981	-24.9759998	24.8250008	570
8.15699959	98.1110001	88.0090027	75.2969971	35.4560013	-25.0680008	24.5790005	571
8.17099953	99.5749969	86.9599991	75.2639999	35.9440002	-24.9869995	25.0559998	572
8.18599987	98.8860016	87.2009964	76.4430008	35.6879997	-24.8139992	24.8850002	573
8.19999981	101.471001	86.8389969	75.2969971	35.7060013	-24.7649994	25.1110001	574
8.21399975	99.6719971	85.3069992	76.0149994	35.5880013	-25.0060005	25.0750008	575
8.22900009	100.345001	85.3830032	75.802002	35.5979996	-24.7749996	24.7140007	576
8.24300003	100.183998	87.3639984	78.2170029	35.5550003	-24.8740005	24.7560005	577
8.25699997	102.178001	84.1269989	77.9530029	35.6240005	-25.1229992	24.7950001	578
8.27099991	102.181999	85.8249969	77.3730011	35.3689995	-25.1730003	25.0249996	579
8.28600025	104.420998	85.9680023	78.1210022	35.6969986	-24.7469997	24.8439999	580
8.30000019	102.862999	82.5589981	78.0139999	35.5709991	-24.7900009	24.9839993	581
8.31400013	103.115997	84.3970032	79.5500031	35.605999	-24.9960003	24.9230003	582
8.32900047	104.525002	82.9700012	79.7529984	35.7360001	-25.1469994	24.9169998	583
8.34300041	104.111	83.6930008	79.8840027	35.2980003	-25.0970001	24.8560009	584
8.35700035	105.877998	83.2330017	80.0240021	35.5489998	-24.9099998	24.9370003	585
8.37100029	105.196999	82.3840027	80.1669998	35.5849991	-25.1000004	24.9260006	586
8.38599968	106.394997	82.8580017	79.2710037	35.4710007	-25.0760002	24.9599991	587
8.39999962	105.712997	81.2929993	80.5059967	35.387001	-24.9139996	24.9050007	588
8.41399956	107.001999	82.6800003	82.3160019	35.4539986	-24.6280003	25.2049999	589
8.4289999	107.408997	81.4380035	83.4609985	35.362999	-24.7520008	25.1060009	590
8.44299984	109.708	80.1060028	81.1139984	35.1650009	-24.6469994	24.9939995	591
8.45699978	108.058998	80.8539963	82.7330017	35.2060013	-24.868	25.0799999	592
8.47099972	110.075996	79.4899979	83.3300018	35.0849991	-25.0629997	24.9370003	593
8.48600006	109.386002	80.1230011	84.1419983	35.1030006	-24.7220001	24.8010006	594
8.5	110.728996	81.2910004	84.1269989	35.2490005	-24.8630009	24.7950001	595
8.51399994	111.306	78.4869995	83.9440002	35.5390015	-24.9589996	24.8740005	596
8.52900028	112.490997	79.1849976	83.9869995	35.1889992	-24.6490002	24.7889996	597
8.54300022	111.079002	79.887001	84.8560028	35.1809998	-24.5779991	25.2509995	598
8.55700016	111.434998	77.4899979	84.1880035	35.3110008	-24.8349991	25.0799999	599
8.5710001	113.123001	77.6920013	84.6210022	35.1609993	-24.9260006	24.8630009	600
8.58600044	114.162003	77.685997	85.4440002	35.3320007	-24.7590008	25.2549992	601
8.60000038	114.911003	76.4250031	85.5849991	35.2330017	-24.4260006	25.2999992	602
8.61400032	114.754997	76.4889984	87.1910019	35.2120018	-24.8439999	25.066	603
8.62899971	115.588997	76.5059967	87.9020004	35.4080009	-24.5769997	25.052	604
8.64299965	115.556999	76.6549988	87.7799988	34.8370018	-24.7310009	24.9869995	605
8.65699959	116.975998	76.4649963	86.5530014	35.1230011	-24.8379993	25.1739998	606
8.67099953	117.712997	74.9970016	87.6699982	35.0110016	-24.448	25.2700005	607
8.68599987	116.903	75.0159988	89.1920013	35.0309982	-24.6930008	25.3080006	608
8.69999981	116.544998	73.7419968	88.5940018	34.9669991	-24.6940002	25.1749992	609
8.71399975	118.849998	74.5589981	88.4800034	35.0830002	-24.6019993	25.3379993	610
8.72900009	117.066002	73.8010025	89.947998	35.0760002	-24.7019997	25.1289997	611
8.74300003	118.835999	72.5630035	88.987999	34.7089996	-24.4570007	25.1149998	612
8.75699997	120.031998	75.2269974	89.1880035	34.9720001	-24.6889992	25.3059998	613
8.77099991	119.575996	71.9869995	91.3720016	34.9589996	-24.6560001	25.2420006	614
8.78600025	120.371002	72.6190033	90.5780029	34.8440018	-24.6520004	25.0219994	615
8.80000019	121.648003	71.5719986	90.1269989	34.7809982	-24.5410004	25.3840008	616
8.81400013	122.440002	71.3679962	92.9710007	34.5719986	-24.6550007	25.2140007	617
8.82900047	122.339996	70.7289963	92.4469986	34.6819992	-24.9979992	25.2639999	618
8.84300041	123.273003	72.2699966	92.1080017	34.9160004	-24.6849995	25.2789993	619
8.85700035	123.378998	71.7409973	93.2340012	34.9630013	-24.7369995	25.3969994	620
8.87100029	122.540001	69.5559998	93.6930008	34.6689987	-24.8180008	25.2220001	621
8.88599968	124.801003	70.4160004	92.2770004	34.6559982	-24.6450005	25.3129997	622
8.89999962	124.527	70.1409988	93.1549988	34.7019997	-24.6989994	25.316	623
8.91399956	125.746002	69.1750031	93.1439972	34.7630005	-24.7719994	25.2210007	624
8.9289999	124.995003	68.223999	93.0039978	34.5839996	-24.9580002	25.4430008	625
8.94299984	125.488998	68.9530029	96.1179962	34.4959984	-24.5900002	25.4769993	626
8.95699978	125.600998	67.9729996	95.3420029	34.6139984	-24.8700008	25.1280003	627
8.97099972	129.212006	67.8789978	96.1190033	34.5320015	-24.8589993	25.3409996	628
8.98600006	126.206001	67.8939972	96.8379974	34.5099983	-24.7649994	25.2380009	629
9	128.714996	68.1449966	97.151001	34.3499985	-24.809	25.2310009	630
9.01399994	129.598007	65.5390015	96.4300003	34.5649986	-24.7199993	25.3040009	631
9.02900028	127.655998	66.8450012	96.9580002	34.5009995	-24.75	25.5419998	632
9.04300022	129.410995	63.8110008	98.1790009	34.6949997	-24.7520008	25.4130001	633
9.05700016	129.251007	65.4889984	98.1959991	34.3520012	-24.5919991	25.4260006	634
9.0710001	129.908005	64.3509979	97.7539978	34.3670006	-24.5569992	25.4869995	635
9.08600044	130.080994	66.151001	97.7789993	34.4469986	-24.4610004	25.4890003	636
9.10000038	131.468002	63.8470001	98.6809998	34.4650002	-24.6040001	25.3139992	637
9.11400032	132.587006	64.3590012	99.8499985	34.4119987	-24.7870007	25.3689995	638
9.12899971	133.709	63.3349991	100.091003	34.4309998	-24.6200008	25.3950005	639
9.14299965	132.292999	64.0719986	100.841003	34.5940018	-24.5960007	25.5599995	640
9.15699959	133.675003	64.0299988	100.011002	34.4970016	-24.684	25.2880001	641
9.17099953	134.854996	61.4529991	99.7040024	34.6879997	-24.7689991	25.4850006	642
9.18599987	134.839005	62.6780014	101.810997	34.0299988	-24.5869999	25.2740002	643
9.19999981	134.511993	62.8330002	101.717003	34.1069984	-24.6350002	25.4440002	644
9.21399975	134.328003	62.7639999	100.122002	34.2980003	-24.5330009	25.7040005	645
9.22900009	134.270004	61.730999	100.886002	34.2410011	-24.5669994	25.1940002	646
9.24300003	137.408997	61.4280014	103.447998	33.8849983	-24.8630009	25.1359997	647
9.25699997	137.533005	60.9370003	103.098	34.2179985	-24.4139996	25.6580009	648
9.27099991	137.798004	62.0219994	104.839996	33.8779984	-24.7390003	25.4349995	649
9.28600025	136.529007	59.5079994	104.585999	34.2900009	-24.5739994	25.6970005	650
9.30000019	138.667007	59.4239998	102.976997	34.1949997	-24.5769997	25.2189999	651
9.31400013	137.951004	57.4850006	105.558998	34.1969986	-24.6070004	25.3659992	652
9.32900047	139.222	59.3839989	105.361	34.2910004	-24.4759998	25.5979996	653
9.34300041	140.679993	58.5299988	105.792	33.7680016	-24.6870003	25.5139999	654
9.35700035	139.813004	58.7490005	104.703003	34.0499992	-24.2360001	25.5499992	655
9.37100029	140.606995	58.3069992	105.362999	33.7859993	-24.5109997	25.3500004	656
9.38599968	141.464996	57.7750015	107.044998	34.0559998	-24.7369995	25.4190006	657
9.39999962	140.572006	57.8930016	105.966003	33.7960014	-24.4899998	25.6469994	658
9.41399956	141.298004	58.0900002	104.757004	33.9000015	-24.8759995	25.5	659
9.4289999	142.300995	56.2589989	108.095001	33.7210007	-24.6350002	25.5849991	660
9.44299984	142.893005	56.4729996	106.873001	34.1899986	-24.6860008	25.5279999	661
9.45699978	146.042999	56.4850006	109.053001	34.0029984	-24.5389996	25.4920006	662
9.47099972	145.205994	56.1689987	107.980003	33.9339981	-24.5149994	25.3490009	663
9.48600006	144.858002	56.0589981	107.998001	33.9389992	-24.6550007	25.4549999	664
9.5	143.998993	55.644001	110.038002	33.6389999	-24.3320007	25.4559994	665
9.51399994	145.910995	54.0419998	109.318001	34.0769997	-24.3929996	25.6749992	666
9.52900028	146.139999	54.151001	109.528	33.9420013	-24.441	25.4370003	667
9.54300022	144.705002	54.0390015	109.417	33.7599983	-24.6639996	25.6970005	668
9.55700016	147.005997	54.1389999	108.412003	33.7210007	-24.2609997	25.5249996	669
9.5710001	148.169006	52.348999	111.947998	33.862999	-24.4260006	25.5750008	670
9.58600044	148.451004	53.3470001	109.556999	33.8600006	-24.3789997	25.6889992	671
9.60000038	147.057007	51.5449982	110.850998	33.6819992	-24.1989994	25.7560005	672
9.61400032	148.511993	50.7029991	112.071999	33.8979988	-24.4150009	25.7320004	673
9.62899971	149.839996	51.8289986	111.426003	33.9000015	-24.0100002	25.4950008	674
9.64299965	149.268005	51.2630005	113.531998	33.7169991	-24.3129997	25.7159996	675
9.65699959	150.216995	50.7449989	113.735001	33.848999	-24.4669991	25.434	676
9.67099953	150.457001	52.4819984	113.650002	33.7159996	-24.3479996	25.5569992	677
9.68599987	152.472	50.9580002	114.375999	33.6599998	-24.3339996	25.6270008	678
9.69999981	151.078003	49.8219986	114.929001	33.7130013	-24.2409992	25.5149994	679
9.71399975	150.809998	50.7029991	114.132004	33.5699997	-24.4899998	25.4969997	680
9.72900009	152.669998	48.7150002	114.273003	33.5449982	-24.3479996	25.7779999	681
9.74300003	153.408005	49.0110016	114.541	33.6780014	-24.6660004	25.7409992	682
9.75699997	153.962997	48.9490013	116.355003	33.5180016	-24.1509991	25.6149998	683
9.77099991	152.869003	45.4379997	116.682999	33.6780014	-24.2469997	25.7040005	684
9.78600025	152.106003	48.7630005	116.584	33.5449982	-24.0219994	25.7679996	685
9.80000019	154.462006	47.1360016	116.184998	33.5130005	-24.1480007	25.3430004	686
9.81400013	154.751007	47.875	116.599998	33.5569992	-24.0799999	25.5270004	687
9.82900047	156.651001	46.1920013	116.561996	33.5769997	-23.9689999	25.6499996	688
9.84300041	157.914001	46.1800003	118.720001	33.5890007	-24.1049995	25.6550007	689
9.85700035	158.154999	45.6660004	117.420998	33.2459984	-24.0739994	25.3959999	690
9.87100029	157.880997	45.5439987	115.93	33.6220016	-24.1809998	25.3759995	691
9.88599968	158.832001	46.6689987	120.247002	33.8499985	-24.6229992	25.7619991	692
9.89999962	159.613998	43.0019989	119.363998	33.1160011	-24.1669998	25.3640003	693
9.91399956	158.350998	45.362999	119.835999	33.5559998	-23.9279995	25.4909992	694
9.9289999	160.429001	44.723999	120.956001	33.4710007	-24.2800007	25.8929996	695
9.94299984	158.807999	44.3450012	119.815002	33.598999	-24.2320004	25.6369991	696
9.95699978	161.606995	43.6599998	121.724998	33.3089981	-24.1970005	25.7329998	697
9.97099972	161.052994	43.1209984	122.077003	33.2809982	-23.8999996	25.3770008	698
9.98600006	160.764008	40.2019997	121.417	33.1469994	-23.8759995	25.7360001	699
10	161.188004	43.9510002	121.845001	33.3660011	-24.0470009	25.4969997	700
10.0139999	161.830994	42.1650009	122.321999	33.2610016	-23.6359997	25.7150002	701
10.0290003	163.389008	40.7680016	121.981003	33.2039986	-23.7310009	25.5760002	702
10.0430002	162.988007	41.9620018	122.941002	33.387001	-23.8799992	25.7220001	703
10.0570002	163.757004	43.9360008	123.654999	33.6430016	-23.9169998	25.9559994	704
10.0710001	163.035995	41.6100006	122.129997	33.1660004	-23.7940006	25.6030006	705
10.0860004	165.858994	40.1199989	124.112999	33.3839989	-23.7730007	25.5550003	706
10.1000004	165.190002	40.4990005	123.901001	33.1419983	-23.7199993	26.0030003	707
10.1140003	166.934998	38.5940018	124.419998	33.4529991	-23.8579998	25.5440006	708
10.1289997	165.852005	40.4339981	126.373001	33.1279984	-24.0610008	25.7099991	709
10.1429996	165.884995	38.4609985	125.879997	33.2449989	-23.7520008	25.6359997	710
10.1569996	167.106995	39.4920006	126.625999	33.2039986	-24.0039997	25.7619991	711
10.1709995	168.113998	39.9049988	126.498001	33.4790001	-23.8299999	25.7229996	712
10.1859999	168.444	39.2980003	127.392998	33.2099991	-23.7660007	25.9309998	713
10.1999998	167.177994	36.9150009	126.218002	33.3149986	-23.6469994	25.9729996	714
10.2139997	168.684998	38.2970009	127.625	33.2830009	-23.7980003	25.9300003	715
10.2290001	170.042999	36.2330017	128.690994	33.0550003	-23.7099991	25.6940002	716
10.243	169.863998	36.8460007	128.766998	33.3199997	-23.6140003	25.9459991	717
10.257	171.057007	35.012001	126.532997	33.6290016	-23.8209991	25.9449997	718
10.2709999	172.076004	35.118	127.375	33.3139992	-23.7180004	25.7679996	719
10.2860003	172.380005	36.0540009	127.845001	32.9659996	-24.0119991	25.9510002	720
10.3000002	171.617004	35.0229988	129.520004	32.8059998	-23.8239994	25.8400002	721
10.3140001	172.352005	33.257	130.447998	32.8610001	-23.5400009	25.7759991	722
10.3290005	173.031006	35.7970009	130.798004	33.2130013	-23.809	26.052	723
10.3430004	173.220993	34.9119987	130.858002	33.0540009	-23.7900009	26.1709995	724
10.3570004	173.436005	34.5340004	131.276001	33.2330017	-23.4400005	25.8869991	725
10.3710003	175.091003	33.8120003	131.819	33.1279984	-23.75	26.0400009	726
10.3859997	173.054001	35.4119987	130.473999	33.1930008	-23.6520004	25.8589993	727
10.3999996	175.309998	32.1679993	132.707993	32.9480019	-23.7980003	26.1469994	728
10.4139996	175.792999	34.4869995	132.802994	32.8779984	-23.7999992	25.8490009	729
10.4289999	177.487	33.4150009	132.966003	33.0130005	-23.8369999	25.9260006	730
10.4429998	177.725006	32.6879997	131.158005	32.9550018	-23.6520004	26.0219994	731
10.4569998	176.326004	32.4760017	135.621994	32.9860001	-23.618	26.2010002	732
10.4709997	177.944	30.8209991	134.406998	32.9459991	-23.4099998	25.8250008	733
10.4860001	176.904007	31.8290005	134.606995	32.9539986	-23.8029995	25.8670006	734
10.5	178.380005	29.8169994	135.054001	33.0169983	-23.6830006	25.8470001	735
10.5139999	177.363007	30.6359997	135.660004	33.1389999	-23.6380005	26.1439991	736
10.5290003	180.809006	30.8600006	135.975998	32.7779999	-23.6919994	25.948	737
10.5430002	179.699997	30.7870007	133.414993	32.9259987	-23.4529991	26.0470009	738
10.5570002	178.190994	30.9370003	135.306	32.8639984	-23.4829998	26.0750008	739
10.5710001	181.783997	29.4060001	135	32.8069992	-23.4330006	25.9860001	740
10.5860004	181.076004	28.0529995	135.434006	32.8339996	-23.6439991	25.8540001	741
10.6000004	180.927002	28.5300007	136.485992	32.7849998	-23.5359993	25.9769993	742
10.6140003	181.970993	28.3460007	139.496994	33.026001	-23.6009998	26.0559998	743
10.6289997	180.979996	27.9740009	138.313004	32.6619987	-23.6590004	25.8460007	744
10.6429996	182.899002	26.4960003	139.841995	32.8269997	-23.7929993	25.7259998	745
10.6569996	182.229996	27.4050007	139.373001	32.8110008	-23.5799999	26.3010006	746
10.6709995	183.584	27.2679996	138.985001	32.9339981	-23.5370007	25.9890003	747
10.6859999	185.615005	25.5480003	140.738998	32.9700012	-23.3339996	26.1469994	748
10.6999998	183.376007	25.9829998	141.059006	33.0349998	-23.7299995	26.3080006	749
10.7139997	185.179993	24.0699997	139.453995	32.8040009	-23.8050003	25.9109993	750
10.7290001	187.240997	24.5419998	139.582001	33.0079994	-23.4279995	26.1509991	751
10.743	188.630005	25.0100002	139.714996	32.6650009	-23.4459991	26.0790005	752
10.757	187.768997	24.4920006	143.042999	32.762001	-23.5410004	26.1569996	753
10.7709999	187.761002	25.1620007	142.143005	32.8619995	-23.3369999	25.8799992	754
10.7860003	188.216003	24.0459995	142.817993	32.6040001	-23.5720005	26.2070007	755
10.8000002	187.416	23.7509995	141.804001	32.8269997	-23.5310001	26.0799999	756
10.8140001	188.822006	22.9330006	141.582001	32.7509995	-23.5879993	26.1499996	757
10.8290005	191.891998	23.3439999	142.242004	32.7770004	-23.6830006	25.9290009	758
10.8430004	188.824997	21.6149998	143.123001	32.7299995	-23.3610001	25.9610004	759
10.8570004	189.175995	24.4580002	142.723999	32.5830002	-23.2689991	25.9519997	760
10.8710003	191.315002	20.5419998	145.401993	32.7019997	-23.4619999	25.6329994	761
10.8859997	190.628998	22.0450001	144.548996	32.8149986	-23.3400002	26.0300007	762
10.8999996	191.634995	20.4020004	144.513	32.7820015	-23.3840008	26.1819992	763
10.9139996	193.539001	20.6690006	144.686996	32.8510017	-23.7679996	26.0860004	764
10.9289999	192.356995	20.8250008	147.089005	32.7849998	-23.5179996	25.9640007	765
10.9429998	191.421997	21.9640007	147.544998	32.5660019	-23.4249992	25.9619999	766
10.9569998	192.600006	20.6110001	147.259995	32.8549995	-23.3670006	26.0839996	767
10.9709997	193.735992	19.2390003	147.848999	32.6030006	-23.3369999	25.7929993	768
10.9860001	195.692001	19.5559998	148.264008	32.6769981	-23.3330002	25.8710003	769
11	195.001007	20.6350002	149.283005	32.6479988	-23.3190002	26.2520008	770
11.0139999	195.882996	19.1550007	149.326996	32.8199997	-23.5690002	26.0599995	771
11.0290003	196.341995	19.5130005	148.160004	32.8059998	-23.6639996	25.8180008	772
11.0430002	196.391998	19.2910004	149.246994	32.5330009	-23.4610004	26.2740002	773
11.0570002	197.188995	16.7840004	148.524002	32.5960007	-23.1900005	25.9069996	774
11.0710001	197.307999	17.9729996	149.181	32.8610001	-23.3829994	25.9160004	775
11.0860004	196.852005	18.5510006	149.690002	32.723999	-23.1879997	26.4179993	776
11.1000004	199.276001	15.3620005	150.065994	32.6720009	-23.4260006	25.927	777
11.1140003	198.438995	16.9810009	149.863007	32.7389984	-23.2259998	26.1299992	778
11.1289997	199.996002	17.6380005	151.104004	32.9160004	-23.6720009	26.0130005	779
11.1429996	200.423996	15.6280003	151.878998	32.5180016	-23.6730003	26.0480003	780
11.1569996	200.742996	16.4969997	153.755997	32.5569992	-23.2819996	26.1469994	781
11.1709995	199.143005	13.8529997	152.203995	32.5979996	-23.1669998	26.1569996	782
11.1859999	200.606003	13.6190004	153.184998	32.512001	-23.3470001	25.9750004	783
11.1999998	200.332001	13.9519997	153.531998	32.4560013	-23.2759991	25.934	784
11.2139997	201.082001	15.8859997	154.274002	32.5940018	-23.0349998	25.9850006	785
11.2290001	202.550003	13.724	154.522003	32.5390015	-23.323	25.9909992	786
11.243	203.837997	13.0860004	154.699997	32.6010017	-23.3889999	26.2299995	787
11.257	203.100998	15.0459995	154.623993	32.3199997	-23.3579998	26.0790005	788
11.2709999	203.903	13.684	156.087997	32.2939987	-23.5419998	26.0279999	789
11.2860003	206.147003	11.1669998	156.190002	32.7729988	-23.2530003	26.0340004	790
11.3000002	203.843002	12.5579996	155.548004	32.382	-23.1989994	25.9729996	791
11.3140001	204.623001	12.3540001	155.940994	32.1419983	-22.9869995	26.1459999	792
11.3290005	206.091995	13.0380001	157.126999	32.3880005	-23.2740002	26.1289997	793
11.3430004	205.371994	10.3500004	156.042007	32.4630013	-23.2299995	25.941	794
11.3570004	206.647995	11.4040003	156.095993	32.618	-22.9510002	26.1280003	795
11.3710003	207.434998	10.8900003	157.889999	32.480999	-23.2339993	26.1949997	796
11.3859997	206.580994	10.3360004	157.705994	32.3429985	-23.2530003	25.9400005	797
11.3999996	208.436996	11.2670002	158.612	32.6529999	-23.0799999	26.0380001	798
11.4139996	208.664993	9.6789999	158.764999	32.5429993	-23.4130001	26.3299999	799
11.4289999	209.136002	8.28600025	158.815002	32.5369987	-23.1650009	26.3579998	800
11.4429998	208.533997	8.875	159.585999	32.7210007	-22.9060001	26.2859993	801
\.


--
-- TOC entry 2805 (class 2606 OID 70338)
-- Name: totalcom snap; Type: CONSTRAINT; Schema: public; Owner: python
--

ALTER TABLE ONLY public.totalcom
    ADD CONSTRAINT snap PRIMARY KEY (snap);


-- Completed on 2020-03-26 14:48:55

--
-- PostgreSQL database dump complete
--

